# E (eV)   ldos(E)   pdos(E)   
  -6.059  0.681E-06  0.681E-06
  -6.049  0.106E-05  0.106E-05
  -6.039  0.164E-05  0.164E-05
  -6.029  0.252E-05  0.252E-05
  -6.019  0.381E-05  0.381E-05
  -6.009  0.572E-05  0.572E-05
  -5.999  0.849E-05  0.849E-05
  -5.989  0.125E-04  0.125E-04
  -5.979  0.182E-04  0.182E-04
  -5.969  0.262E-04  0.262E-04
  -5.959  0.374E-04  0.374E-04
  -5.949  0.528E-04  0.528E-04
  -5.939  0.739E-04  0.739E-04
  -5.929  0.102E-03  0.102E-03
  -5.919  0.141E-03  0.141E-03
  -5.909  0.191E-03  0.191E-03
  -5.899  0.258E-03  0.258E-03
  -5.889  0.344E-03  0.344E-03
  -5.879  0.455E-03  0.455E-03
  -5.869  0.595E-03  0.595E-03
  -5.859  0.773E-03  0.773E-03
  -5.849  0.994E-03  0.994E-03
  -5.839  0.127E-02  0.127E-02
  -5.829  0.160E-02  0.160E-02
  -5.819  0.200E-02  0.200E-02
  -5.809  0.249E-02  0.249E-02
  -5.799  0.306E-02  0.306E-02
  -5.789  0.373E-02  0.373E-02
  -5.779  0.451E-02  0.451E-02
  -5.769  0.541E-02  0.541E-02
  -5.759  0.644E-02  0.644E-02
  -5.749  0.759E-02  0.759E-02
  -5.739  0.889E-02  0.889E-02
  -5.729  0.103E-01  0.103E-01
  -5.719  0.119E-01  0.119E-01
  -5.709  0.136E-01  0.136E-01
  -5.699  0.155E-01  0.155E-01
  -5.689  0.175E-01  0.175E-01
  -5.679  0.196E-01  0.196E-01
  -5.669  0.218E-01  0.218E-01
  -5.659  0.241E-01  0.241E-01
  -5.649  0.265E-01  0.265E-01
  -5.639  0.289E-01  0.289E-01
  -5.629  0.314E-01  0.314E-01
  -5.619  0.340E-01  0.340E-01
  -5.609  0.365E-01  0.365E-01
  -5.599  0.391E-01  0.391E-01
  -5.589  0.416E-01  0.416E-01
  -5.579  0.441E-01  0.441E-01
  -5.569  0.466E-01  0.466E-01
  -5.559  0.490E-01  0.490E-01
  -5.549  0.514E-01  0.514E-01
  -5.539  0.537E-01  0.537E-01
  -5.529  0.559E-01  0.559E-01
  -5.519  0.580E-01  0.580E-01
  -5.509  0.601E-01  0.601E-01
  -5.499  0.620E-01  0.620E-01
  -5.489  0.639E-01  0.639E-01
  -5.479  0.657E-01  0.657E-01
  -5.469  0.674E-01  0.674E-01
  -5.459  0.690E-01  0.690E-01
  -5.449  0.706E-01  0.706E-01
  -5.439  0.720E-01  0.720E-01
  -5.429  0.735E-01  0.735E-01
  -5.419  0.748E-01  0.748E-01
  -5.409  0.761E-01  0.761E-01
  -5.399  0.774E-01  0.774E-01
  -5.389  0.787E-01  0.787E-01
  -5.379  0.799E-01  0.799E-01
  -5.369  0.812E-01  0.812E-01
  -5.359  0.824E-01  0.824E-01
  -5.349  0.836E-01  0.836E-01
  -5.339  0.849E-01  0.849E-01
  -5.329  0.861E-01  0.861E-01
  -5.319  0.873E-01  0.873E-01
  -5.309  0.885E-01  0.885E-01
  -5.299  0.897E-01  0.897E-01
  -5.289  0.908E-01  0.908E-01
  -5.279  0.918E-01  0.918E-01
  -5.269  0.928E-01  0.928E-01
  -5.259  0.937E-01  0.937E-01
  -5.249  0.945E-01  0.945E-01
  -5.239  0.952E-01  0.952E-01
  -5.229  0.959E-01  0.959E-01
  -5.219  0.965E-01  0.965E-01
  -5.209  0.971E-01  0.971E-01
  -5.199  0.977E-01  0.977E-01
  -5.189  0.982E-01  0.982E-01
  -5.179  0.988E-01  0.988E-01
  -5.169  0.994E-01  0.994E-01
  -5.159  0.100E+00  0.100E+00
  -5.149  0.101E+00  0.101E+00
  -5.139  0.101E+00  0.101E+00
  -5.129  0.102E+00  0.102E+00
  -5.119  0.103E+00  0.103E+00
  -5.109  0.104E+00  0.104E+00
  -5.099  0.105E+00  0.105E+00
  -5.089  0.106E+00  0.106E+00
  -5.079  0.107E+00  0.107E+00
  -5.069  0.108E+00  0.108E+00
  -5.059  0.109E+00  0.109E+00
  -5.049  0.110E+00  0.110E+00
  -5.039  0.111E+00  0.111E+00
  -5.029  0.112E+00  0.112E+00
  -5.019  0.113E+00  0.113E+00
  -5.009  0.114E+00  0.114E+00
  -4.999  0.115E+00  0.115E+00
  -4.989  0.116E+00  0.116E+00
  -4.979  0.116E+00  0.116E+00
  -4.969  0.117E+00  0.117E+00
  -4.959  0.117E+00  0.117E+00
  -4.949  0.117E+00  0.117E+00
  -4.939  0.118E+00  0.118E+00
  -4.929  0.118E+00  0.118E+00
  -4.919  0.118E+00  0.118E+00
  -4.909  0.118E+00  0.118E+00
  -4.899  0.118E+00  0.118E+00
  -4.889  0.118E+00  0.118E+00
  -4.879  0.118E+00  0.118E+00
  -4.869  0.118E+00  0.118E+00
  -4.859  0.118E+00  0.118E+00
  -4.849  0.119E+00  0.119E+00
  -4.839  0.119E+00  0.119E+00
  -4.829  0.120E+00  0.120E+00
  -4.819  0.120E+00  0.120E+00
  -4.809  0.121E+00  0.121E+00
  -4.799  0.122E+00  0.122E+00
  -4.789  0.124E+00  0.124E+00
  -4.779  0.125E+00  0.125E+00
  -4.769  0.126E+00  0.126E+00
  -4.759  0.128E+00  0.128E+00
  -4.749  0.130E+00  0.130E+00
  -4.739  0.131E+00  0.131E+00
  -4.729  0.133E+00  0.133E+00
  -4.719  0.134E+00  0.134E+00
  -4.709  0.135E+00  0.135E+00
  -4.699  0.136E+00  0.136E+00
  -4.689  0.137E+00  0.137E+00
  -4.679  0.138E+00  0.138E+00
  -4.669  0.139E+00  0.139E+00
  -4.659  0.139E+00  0.139E+00
  -4.649  0.139E+00  0.139E+00
  -4.639  0.139E+00  0.139E+00
  -4.629  0.138E+00  0.138E+00
  -4.619  0.138E+00  0.138E+00
  -4.609  0.137E+00  0.137E+00
  -4.599  0.137E+00  0.137E+00
  -4.589  0.136E+00  0.136E+00
  -4.579  0.136E+00  0.136E+00
  -4.569  0.135E+00  0.135E+00
  -4.559  0.135E+00  0.135E+00
  -4.549  0.135E+00  0.135E+00
  -4.539  0.134E+00  0.134E+00
  -4.529  0.135E+00  0.135E+00
  -4.519  0.135E+00  0.135E+00
  -4.509  0.136E+00  0.136E+00
  -4.499  0.136E+00  0.136E+00
  -4.489  0.138E+00  0.138E+00
  -4.479  0.139E+00  0.139E+00
  -4.469  0.140E+00  0.140E+00
  -4.459  0.142E+00  0.142E+00
  -4.449  0.143E+00  0.143E+00
  -4.439  0.145E+00  0.145E+00
  -4.429  0.147E+00  0.147E+00
  -4.419  0.149E+00  0.149E+00
  -4.409  0.150E+00  0.150E+00
  -4.399  0.152E+00  0.152E+00
  -4.389  0.153E+00  0.153E+00
  -4.379  0.154E+00  0.154E+00
  -4.369  0.155E+00  0.155E+00
  -4.359  0.156E+00  0.156E+00
  -4.349  0.157E+00  0.157E+00
  -4.339  0.157E+00  0.157E+00
  -4.329  0.158E+00  0.158E+00
  -4.319  0.158E+00  0.158E+00
  -4.309  0.159E+00  0.159E+00
  -4.299  0.159E+00  0.159E+00
  -4.289  0.159E+00  0.159E+00
  -4.279  0.159E+00  0.159E+00
  -4.269  0.160E+00  0.160E+00
  -4.259  0.160E+00  0.160E+00
  -4.249  0.160E+00  0.160E+00
  -4.239  0.160E+00  0.160E+00
  -4.229  0.161E+00  0.161E+00
  -4.219  0.161E+00  0.161E+00
  -4.209  0.161E+00  0.161E+00
  -4.199  0.161E+00  0.161E+00
  -4.189  0.162E+00  0.162E+00
  -4.179  0.162E+00  0.162E+00
  -4.169  0.162E+00  0.162E+00
  -4.159  0.162E+00  0.162E+00
  -4.149  0.162E+00  0.162E+00
  -4.139  0.162E+00  0.162E+00
  -4.129  0.161E+00  0.161E+00
  -4.119  0.161E+00  0.161E+00
  -4.109  0.161E+00  0.161E+00
  -4.099  0.161E+00  0.161E+00
  -4.089  0.161E+00  0.161E+00
  -4.079  0.162E+00  0.162E+00
  -4.069  0.162E+00  0.162E+00
  -4.059  0.162E+00  0.162E+00
  -4.049  0.163E+00  0.163E+00
  -4.039  0.164E+00  0.164E+00
  -4.029  0.166E+00  0.166E+00
  -4.019  0.167E+00  0.167E+00
  -4.009  0.169E+00  0.169E+00
  -3.999  0.171E+00  0.171E+00
  -3.989  0.173E+00  0.173E+00
  -3.979  0.176E+00  0.176E+00
  -3.969  0.178E+00  0.178E+00
  -3.959  0.181E+00  0.181E+00
  -3.949  0.184E+00  0.184E+00
  -3.939  0.186E+00  0.186E+00
  -3.929  0.189E+00  0.189E+00
  -3.919  0.191E+00  0.191E+00
  -3.909  0.193E+00  0.193E+00
  -3.899  0.195E+00  0.195E+00
  -3.889  0.196E+00  0.196E+00
  -3.879  0.198E+00  0.198E+00
  -3.869  0.199E+00  0.199E+00
  -3.859  0.199E+00  0.199E+00
  -3.849  0.199E+00  0.199E+00
  -3.839  0.199E+00  0.199E+00
  -3.829  0.199E+00  0.199E+00
  -3.819  0.198E+00  0.198E+00
  -3.809  0.197E+00  0.197E+00
  -3.799  0.196E+00  0.196E+00
  -3.789  0.195E+00  0.195E+00
  -3.779  0.194E+00  0.194E+00
  -3.769  0.193E+00  0.193E+00
  -3.759  0.192E+00  0.192E+00
  -3.749  0.191E+00  0.191E+00
  -3.739  0.191E+00  0.191E+00
  -3.729  0.190E+00  0.190E+00
  -3.719  0.190E+00  0.190E+00
  -3.709  0.190E+00  0.190E+00
  -3.699  0.191E+00  0.191E+00
  -3.689  0.192E+00  0.192E+00
  -3.679  0.193E+00  0.193E+00
  -3.669  0.194E+00  0.194E+00
  -3.659  0.196E+00  0.196E+00
  -3.649  0.198E+00  0.198E+00
  -3.639  0.201E+00  0.201E+00
  -3.629  0.203E+00  0.203E+00
  -3.619  0.206E+00  0.206E+00
  -3.609  0.209E+00  0.209E+00
  -3.599  0.212E+00  0.212E+00
  -3.589  0.215E+00  0.215E+00
  -3.579  0.218E+00  0.218E+00
  -3.569  0.221E+00  0.221E+00
  -3.559  0.225E+00  0.225E+00
  -3.549  0.228E+00  0.228E+00
  -3.539  0.231E+00  0.231E+00
  -3.529  0.234E+00  0.234E+00
  -3.519  0.237E+00  0.237E+00
  -3.509  0.240E+00  0.240E+00
  -3.499  0.243E+00  0.243E+00
  -3.489  0.245E+00  0.245E+00
  -3.479  0.248E+00  0.248E+00
  -3.469  0.251E+00  0.251E+00
  -3.459  0.253E+00  0.253E+00
  -3.449  0.255E+00  0.255E+00
  -3.439  0.258E+00  0.258E+00
  -3.429  0.260E+00  0.260E+00
  -3.419  0.262E+00  0.262E+00
  -3.409  0.265E+00  0.265E+00
  -3.399  0.267E+00  0.267E+00
  -3.389  0.270E+00  0.270E+00
  -3.379  0.273E+00  0.273E+00
  -3.369  0.275E+00  0.275E+00
  -3.359  0.278E+00  0.278E+00
  -3.349  0.281E+00  0.281E+00
  -3.339  0.284E+00  0.284E+00
  -3.329  0.286E+00  0.286E+00
  -3.319  0.289E+00  0.289E+00
  -3.309  0.291E+00  0.291E+00
  -3.299  0.292E+00  0.292E+00
  -3.289  0.293E+00  0.293E+00
  -3.279  0.294E+00  0.294E+00
  -3.269  0.294E+00  0.294E+00
  -3.259  0.293E+00  0.293E+00
  -3.249  0.292E+00  0.292E+00
  -3.239  0.290E+00  0.290E+00
  -3.229  0.288E+00  0.288E+00
  -3.219  0.285E+00  0.285E+00
  -3.209  0.281E+00  0.281E+00
  -3.199  0.278E+00  0.278E+00
  -3.189  0.274E+00  0.274E+00
  -3.179  0.271E+00  0.271E+00
  -3.169  0.267E+00  0.267E+00
  -3.159  0.264E+00  0.264E+00
  -3.149  0.262E+00  0.262E+00
  -3.139  0.260E+00  0.260E+00
  -3.129  0.258E+00  0.258E+00
  -3.119  0.258E+00  0.258E+00
  -3.109  0.258E+00  0.258E+00
  -3.099  0.258E+00  0.258E+00
  -3.089  0.259E+00  0.259E+00
  -3.079  0.261E+00  0.261E+00
  -3.069  0.263E+00  0.263E+00
  -3.059  0.264E+00  0.264E+00
  -3.049  0.266E+00  0.266E+00
  -3.039  0.268E+00  0.268E+00
  -3.029  0.270E+00  0.270E+00
  -3.019  0.271E+00  0.271E+00
  -3.009  0.272E+00  0.272E+00
  -2.999  0.272E+00  0.272E+00
  -2.989  0.272E+00  0.272E+00
  -2.979  0.271E+00  0.271E+00
  -2.969  0.270E+00  0.270E+00
  -2.959  0.268E+00  0.268E+00
  -2.949  0.266E+00  0.266E+00
  -2.939  0.264E+00  0.264E+00
  -2.929  0.261E+00  0.261E+00
  -2.919  0.259E+00  0.259E+00
  -2.909  0.256E+00  0.256E+00
  -2.899  0.254E+00  0.254E+00
  -2.889  0.251E+00  0.251E+00
  -2.879  0.249E+00  0.249E+00
  -2.869  0.247E+00  0.247E+00
  -2.859  0.246E+00  0.246E+00
  -2.849  0.244E+00  0.244E+00
  -2.839  0.243E+00  0.243E+00
  -2.829  0.242E+00  0.242E+00
  -2.819  0.242E+00  0.242E+00
  -2.809  0.242E+00  0.242E+00
  -2.799  0.241E+00  0.241E+00
  -2.789  0.241E+00  0.241E+00
  -2.779  0.241E+00  0.241E+00
  -2.769  0.241E+00  0.241E+00
  -2.759  0.241E+00  0.241E+00
  -2.749  0.240E+00  0.240E+00
  -2.739  0.239E+00  0.239E+00
  -2.729  0.238E+00  0.238E+00
  -2.719  0.237E+00  0.237E+00
  -2.709  0.234E+00  0.234E+00
  -2.699  0.232E+00  0.232E+00
  -2.689  0.229E+00  0.229E+00
  -2.679  0.225E+00  0.225E+00
  -2.669  0.221E+00  0.221E+00
  -2.659  0.216E+00  0.216E+00
  -2.649  0.212E+00  0.212E+00
  -2.639  0.206E+00  0.206E+00
  -2.629  0.201E+00  0.201E+00
  -2.619  0.196E+00  0.196E+00
  -2.609  0.191E+00  0.191E+00
  -2.599  0.185E+00  0.185E+00
  -2.589  0.181E+00  0.181E+00
  -2.579  0.176E+00  0.176E+00
  -2.569  0.173E+00  0.173E+00
  -2.559  0.170E+00  0.170E+00
  -2.549  0.167E+00  0.167E+00
  -2.539  0.166E+00  0.166E+00
  -2.529  0.165E+00  0.165E+00
  -2.519  0.165E+00  0.165E+00
  -2.509  0.166E+00  0.166E+00
  -2.499  0.168E+00  0.168E+00
  -2.489  0.170E+00  0.170E+00
  -2.479  0.173E+00  0.173E+00
  -2.469  0.176E+00  0.176E+00
  -2.459  0.180E+00  0.180E+00
  -2.449  0.185E+00  0.185E+00
  -2.439  0.189E+00  0.189E+00
  -2.429  0.193E+00  0.193E+00
  -2.419  0.198E+00  0.198E+00
  -2.409  0.202E+00  0.202E+00
  -2.399  0.205E+00  0.205E+00
  -2.389  0.209E+00  0.209E+00
  -2.379  0.211E+00  0.211E+00
  -2.369  0.213E+00  0.213E+00
  -2.359  0.215E+00  0.215E+00
  -2.349  0.216E+00  0.216E+00
  -2.339  0.216E+00  0.216E+00
  -2.329  0.215E+00  0.215E+00
  -2.319  0.214E+00  0.214E+00
  -2.309  0.212E+00  0.212E+00
  -2.299  0.210E+00  0.210E+00
  -2.289  0.206E+00  0.206E+00
  -2.279  0.203E+00  0.203E+00
  -2.269  0.199E+00  0.199E+00
  -2.259  0.194E+00  0.194E+00
  -2.249  0.189E+00  0.189E+00
  -2.239  0.184E+00  0.184E+00
  -2.229  0.179E+00  0.179E+00
  -2.219  0.173E+00  0.173E+00
  -2.209  0.168E+00  0.168E+00
  -2.199  0.162E+00  0.162E+00
  -2.189  0.156E+00  0.156E+00
  -2.179  0.151E+00  0.151E+00
  -2.169  0.145E+00  0.145E+00
  -2.159  0.140E+00  0.140E+00
  -2.149  0.134E+00  0.134E+00
  -2.139  0.129E+00  0.129E+00
  -2.129  0.124E+00  0.124E+00
  -2.119  0.119E+00  0.119E+00
  -2.109  0.115E+00  0.115E+00
  -2.099  0.111E+00  0.111E+00
  -2.089  0.107E+00  0.107E+00
  -2.079  0.104E+00  0.104E+00
  -2.069  0.101E+00  0.101E+00
  -2.059  0.988E-01  0.988E-01
  -2.049  0.970E-01  0.970E-01
  -2.039  0.956E-01  0.956E-01
  -2.029  0.948E-01  0.948E-01
  -2.019  0.945E-01  0.945E-01
  -2.009  0.948E-01  0.948E-01
  -1.999  0.956E-01  0.956E-01
  -1.989  0.969E-01  0.969E-01
  -1.979  0.987E-01  0.987E-01
  -1.969  0.101E+00  0.101E+00
  -1.959  0.104E+00  0.104E+00
  -1.949  0.107E+00  0.107E+00
  -1.939  0.110E+00  0.110E+00
  -1.929  0.113E+00  0.113E+00
  -1.919  0.117E+00  0.117E+00
  -1.909  0.120E+00  0.120E+00
  -1.899  0.124E+00  0.124E+00
  -1.889  0.127E+00  0.127E+00
  -1.879  0.130E+00  0.130E+00
  -1.869  0.133E+00  0.133E+00
  -1.859  0.136E+00  0.136E+00
  -1.849  0.138E+00  0.138E+00
  -1.839  0.139E+00  0.139E+00
  -1.829  0.139E+00  0.139E+00
  -1.819  0.139E+00  0.139E+00
  -1.809  0.139E+00  0.139E+00
  -1.799  0.138E+00  0.138E+00
  -1.789  0.136E+00  0.136E+00
  -1.779  0.133E+00  0.133E+00
  -1.769  0.130E+00  0.130E+00
  -1.759  0.126E+00  0.126E+00
  -1.749  0.122E+00  0.122E+00
  -1.739  0.118E+00  0.118E+00
  -1.729  0.113E+00  0.113E+00
  -1.719  0.108E+00  0.108E+00
  -1.709  0.103E+00  0.103E+00
  -1.699  0.974E-01  0.974E-01
  -1.689  0.919E-01  0.919E-01
  -1.679  0.864E-01  0.864E-01
  -1.669  0.809E-01  0.809E-01
  -1.659  0.754E-01  0.754E-01
  -1.649  0.699E-01  0.699E-01
  -1.639  0.646E-01  0.646E-01
  -1.629  0.593E-01  0.593E-01
  -1.619  0.542E-01  0.542E-01
  -1.609  0.492E-01  0.492E-01
  -1.599  0.444E-01  0.444E-01
  -1.589  0.399E-01  0.399E-01
  -1.579  0.356E-01  0.356E-01
  -1.569  0.315E-01  0.315E-01
  -1.559  0.277E-01  0.277E-01
  -1.549  0.241E-01  0.241E-01
  -1.539  0.209E-01  0.209E-01
  -1.529  0.180E-01  0.180E-01
  -1.519  0.154E-01  0.154E-01
  -1.509  0.130E-01  0.130E-01
  -1.499  0.110E-01  0.110E-01
  -1.489  0.927E-02  0.927E-02
  -1.479  0.781E-02  0.781E-02
  -1.469  0.663E-02  0.663E-02
  -1.459  0.571E-02  0.571E-02
  -1.449  0.506E-02  0.506E-02
  -1.439  0.467E-02  0.467E-02
  -1.429  0.454E-02  0.454E-02
  -1.419  0.467E-02  0.467E-02
  -1.409  0.509E-02  0.509E-02
  -1.399  0.580E-02  0.580E-02
  -1.389  0.682E-02  0.682E-02
  -1.379  0.818E-02  0.818E-02
  -1.369  0.990E-02  0.990E-02
  -1.359  0.120E-01  0.120E-01
  -1.349  0.146E-01  0.146E-01
  -1.339  0.176E-01  0.176E-01
  -1.329  0.210E-01  0.210E-01
  -1.319  0.250E-01  0.250E-01
  -1.309  0.294E-01  0.294E-01
  -1.299  0.343E-01  0.343E-01
  -1.289  0.397E-01  0.397E-01
  -1.279  0.455E-01  0.455E-01
  -1.269  0.517E-01  0.517E-01
  -1.259  0.583E-01  0.583E-01
  -1.249  0.650E-01  0.650E-01
  -1.239  0.719E-01  0.719E-01
  -1.229  0.788E-01  0.788E-01
  -1.219  0.856E-01  0.856E-01
  -1.209  0.922E-01  0.922E-01
  -1.199  0.985E-01  0.985E-01
  -1.189  0.104E+00  0.104E+00
  -1.179  0.109E+00  0.109E+00
  -1.169  0.114E+00  0.114E+00
  -1.159  0.118E+00  0.118E+00
  -1.149  0.121E+00  0.121E+00
  -1.139  0.123E+00  0.123E+00
  -1.129  0.124E+00  0.124E+00
  -1.119  0.124E+00  0.124E+00
  -1.109  0.124E+00  0.124E+00
  -1.099  0.122E+00  0.122E+00
  -1.089  0.120E+00  0.120E+00
  -1.079  0.117E+00  0.117E+00
  -1.069  0.114E+00  0.114E+00
  -1.059  0.111E+00  0.111E+00
  -1.049  0.107E+00  0.107E+00
  -1.039  0.103E+00  0.103E+00
  -1.029  0.986E-01  0.986E-01
  -1.019  0.945E-01  0.945E-01
  -1.009  0.905E-01  0.905E-01
  -0.999  0.867E-01  0.867E-01
  -0.989  0.831E-01  0.831E-01
  -0.979  0.798E-01  0.798E-01
  -0.969  0.769E-01  0.769E-01
  -0.959  0.743E-01  0.743E-01
  -0.949  0.721E-01  0.721E-01
  -0.939  0.703E-01  0.703E-01
  -0.929  0.688E-01  0.688E-01
  -0.919  0.678E-01  0.678E-01
  -0.909  0.671E-01  0.671E-01
  -0.899  0.669E-01  0.669E-01
  -0.889  0.670E-01  0.670E-01
  -0.879  0.676E-01  0.676E-01
  -0.869  0.687E-01  0.687E-01
  -0.859  0.703E-01  0.703E-01
  -0.849  0.724E-01  0.724E-01
  -0.839  0.751E-01  0.751E-01
  -0.829  0.784E-01  0.784E-01
  -0.819  0.823E-01  0.823E-01
  -0.809  0.869E-01  0.869E-01
  -0.799  0.922E-01  0.922E-01
  -0.789  0.983E-01  0.983E-01
  -0.779  0.105E+00  0.105E+00
  -0.769  0.113E+00  0.113E+00
  -0.759  0.121E+00  0.121E+00
  -0.749  0.130E+00  0.130E+00
  -0.739  0.140E+00  0.140E+00
  -0.729  0.150E+00  0.150E+00
  -0.719  0.162E+00  0.162E+00
  -0.709  0.173E+00  0.173E+00
  -0.699  0.185E+00  0.185E+00
  -0.689  0.197E+00  0.197E+00
  -0.679  0.210E+00  0.210E+00
  -0.669  0.222E+00  0.222E+00
  -0.659  0.234E+00  0.234E+00
  -0.649  0.246E+00  0.246E+00
  -0.639  0.257E+00  0.257E+00
  -0.629  0.268E+00  0.268E+00
  -0.619  0.277E+00  0.277E+00
  -0.609  0.286E+00  0.286E+00
  -0.599  0.293E+00  0.293E+00
  -0.589  0.299E+00  0.299E+00
  -0.579  0.304E+00  0.304E+00
  -0.569  0.307E+00  0.307E+00
  -0.559  0.309E+00  0.309E+00
  -0.549  0.309E+00  0.309E+00
  -0.539  0.308E+00  0.308E+00
  -0.529  0.306E+00  0.306E+00
  -0.519  0.302E+00  0.302E+00
  -0.509  0.297E+00  0.297E+00
  -0.499  0.291E+00  0.291E+00
  -0.489  0.284E+00  0.284E+00
  -0.479  0.277E+00  0.277E+00
  -0.469  0.269E+00  0.269E+00
  -0.459  0.260E+00  0.260E+00
  -0.449  0.252E+00  0.252E+00
  -0.439  0.244E+00  0.244E+00
  -0.429  0.235E+00  0.235E+00
  -0.419  0.227E+00  0.227E+00
  -0.409  0.220E+00  0.220E+00
  -0.399  0.212E+00  0.212E+00
  -0.389  0.206E+00  0.206E+00
  -0.379  0.199E+00  0.199E+00
  -0.369  0.194E+00  0.194E+00
  -0.359  0.189E+00  0.189E+00
  -0.349  0.184E+00  0.184E+00
  -0.339  0.181E+00  0.181E+00
  -0.329  0.177E+00  0.177E+00
  -0.319  0.175E+00  0.175E+00
  -0.309  0.172E+00  0.172E+00
  -0.299  0.171E+00  0.171E+00
  -0.289  0.169E+00  0.169E+00
  -0.279  0.168E+00  0.168E+00
  -0.269  0.166E+00  0.166E+00
  -0.259  0.165E+00  0.165E+00
  -0.249  0.164E+00  0.164E+00
  -0.239  0.163E+00  0.163E+00
  -0.229  0.162E+00  0.162E+00
  -0.219  0.161E+00  0.161E+00
  -0.209  0.159E+00  0.159E+00
  -0.199  0.158E+00  0.158E+00
  -0.189  0.156E+00  0.156E+00
  -0.179  0.154E+00  0.154E+00
  -0.169  0.152E+00  0.152E+00
  -0.159  0.150E+00  0.150E+00
  -0.149  0.148E+00  0.148E+00
  -0.139  0.146E+00  0.146E+00
  -0.129  0.144E+00  0.144E+00
  -0.119  0.143E+00  0.143E+00
  -0.109  0.142E+00  0.142E+00
  -0.099  0.141E+00  0.141E+00
  -0.089  0.141E+00  0.141E+00
  -0.079  0.141E+00  0.141E+00
  -0.069  0.142E+00  0.142E+00
  -0.059  0.143E+00  0.143E+00
  -0.049  0.145E+00  0.145E+00
  -0.039  0.147E+00  0.147E+00
  -0.029  0.149E+00  0.149E+00
  -0.019  0.152E+00  0.152E+00
  -0.009  0.154E+00  0.154E+00
   0.001  0.156E+00  0.156E+00
   0.011  0.158E+00  0.158E+00
   0.021  0.160E+00  0.160E+00
   0.031  0.162E+00  0.162E+00
   0.041  0.162E+00  0.162E+00
   0.051  0.162E+00  0.162E+00
   0.061  0.162E+00  0.162E+00
   0.071  0.160E+00  0.160E+00
   0.081  0.158E+00  0.158E+00
   0.091  0.155E+00  0.155E+00
   0.101  0.151E+00  0.151E+00
   0.111  0.147E+00  0.147E+00
   0.121  0.142E+00  0.142E+00
   0.131  0.137E+00  0.137E+00
   0.141  0.132E+00  0.132E+00
   0.151  0.126E+00  0.126E+00
   0.161  0.121E+00  0.121E+00
   0.171  0.115E+00  0.115E+00
   0.181  0.110E+00  0.110E+00
   0.191  0.106E+00  0.106E+00
   0.201  0.101E+00  0.101E+00
   0.211  0.977E-01  0.977E-01
   0.221  0.948E-01  0.948E-01
   0.231  0.925E-01  0.925E-01
   0.241  0.909E-01  0.909E-01
   0.251  0.900E-01  0.900E-01
   0.261  0.898E-01  0.898E-01
   0.271  0.901E-01  0.901E-01
   0.281  0.910E-01  0.910E-01
   0.291  0.923E-01  0.923E-01
   0.301  0.939E-01  0.939E-01
   0.311  0.958E-01  0.958E-01
   0.321  0.978E-01  0.978E-01
   0.331  0.998E-01  0.998E-01
   0.341  0.102E+00  0.102E+00
   0.351  0.103E+00  0.103E+00
   0.361  0.105E+00  0.105E+00
   0.371  0.106E+00  0.106E+00
